  STEP   TOTAL TIME             LOCATION OF OBSERVATION POINTS (K,I,J)
                      1  51  51     3  51  51
     1    0.0000        100.00        0.0000    
     2    627.01        100.00        10.511    
     1    1316.7        99.987        18.244    
     1    2075.4        99.985        24.213    
     1    2910.0        99.988        28.940    
     1    3828.0        99.990        32.772    
     1    4837.8        99.991        35.963    
     1    5948.6        99.991        38.703    
     1    7170.4        99.992        41.125    
     1    8514.5        99.997        43.323    
     1    9993.0        100.00        45.364    
     1    11619.        100.00        47.290    
     1    13408.        100.01        49.124    
     1    15376.        100.01        50.882    
     1    17541.        100.01        52.571    
     1    19922.        100.01        54.198    
     1    22541.        100.01        55.765    
     1    25422.        100.01        57.277    
     1    28591.        100.01        58.739    
     1    32077.        100.01        60.155    
     1    35912.        100.01        61.529    
     1    40130.        100.02        62.868    
     1    44770.        100.01        64.174    
     1    49874.        100.01        65.451    
     1    55489.        100.01        66.703    
     1    61665.        100.01        67.933    
     1    68458.        100.01        69.141    
     1    75931.        100.02        70.318    
     1    84151.        100.01        71.496    
     1    93193.        100.01        72.646    
     1   1.03140E+05    100.02        73.766    
     1   1.14081E+05    100.02        74.885    
     1   1.26116E+05    100.02        75.981    
     1   1.39354E+05    100.02        77.041    
     1   1.53917E+05    100.01        78.105    
     1   1.69936E+05    100.02        79.138    
     1   1.87556E+05    100.02        80.150    
     1   2.06939E+05    100.02        81.143    
     1   2.28260E+05    100.02        82.109    
     1   2.51713E+05    100.02        83.058    
     1   2.77511E+05    100.02        83.962    
     1   3.05889E+05    100.02        84.879    
     1   3.37105E+05    100.02        85.754    
     1   3.71443E+05    100.03        86.582    
     1   4.09214E+05    100.01        87.430    
     1   4.50762E+05    100.02        88.224    
     1   4.93067E+05    100.03        88.933    
     2   4.96466E+05    100.03        89.004    
     1   5.38951E+05    100.01        89.667    
     2   5.46739E+05    100.01        89.803    
     1   5.89394E+05    100.02        90.356    
     2   6.02040E+05    100.02        90.547    
     1   6.44864E+05    100.02        91.037    
     2   6.62871E+05    100.02        91.264    
     1   7.05861E+05    100.02        91.686    
     2   7.29785E+05    100.01        91.937    
     1   7.72933E+05    100.02        92.310    
     2   8.03391E+05    100.02        92.580    
     1   8.46696E+05    100.01        92.908    
     2   8.84357E+05    100.01        93.185    
     1   9.27813E+05    100.01        93.474    
     2   9.73420E+05    100.01        93.756    
     1   1.00000E+06    100.00        93.928    
     2   1.04796E+06    99.999        94.183    
     3   1.07139E+06    99.997        94.319    
     1   1.11513E+06    99.991        94.530    
     2   1.16324E+06    99.985        94.747    
     3   1.17915E+06    99.982        94.829    
     1   1.22302E+06    99.974        95.010    
     2   1.27128E+06    99.964        95.195    
     3   1.29770E+06    99.958        95.302    
     1   1.34169E+06    99.946        95.454    
     2   1.39008E+06    99.932        95.609    
     3   1.42809E+06    99.920        95.730    
     1   1.47220E+06    99.904        95.858    
     2   1.52072E+06    99.885        95.987    
     3   1.57153E+06    99.863        96.112    
     1   1.61574E+06    99.841        96.216    
     2   1.66437E+06    99.815        96.321    
     3   1.71786E+06    99.784        96.425    
     4   1.72931E+06    99.777        96.445    
     1   1.77361E+06    99.750        96.524    
     2   1.82234E+06    99.716        96.604    
     3   1.87594E+06    99.674        96.682    
     4   1.90287E+06    99.652        96.715    
     1   1.94725E+06    99.614        96.773    
     2   1.99607E+06    99.568        96.828    
     3   2.04977E+06    99.513        96.879    
     4   2.09378E+06    99.465        96.913    
     1   2.13823E+06    99.417        96.944    
     2   2.18712E+06    99.357        96.975    
     3   2.24090E+06    99.287        97.000    
     4   2.30006E+06    99.204        97.020    
     5   2.30379E+06    99.199        97.005    
     1   2.34829E+06    99.137        97.015    
     2   2.39725E+06    99.060        97.020    
     3   2.45110E+06    98.971        97.018    
     4   2.51034E+06    98.866        97.007    
     5   2.53479E+06    98.821        96.975    
     1   2.57935E+06    98.743        96.960    
     2   2.62835E+06    98.646        96.939    
     3   2.68226E+06    98.534        96.907    
     4   2.74156E+06    98.404        96.864    
     5   2.78890E+06    98.296        96.807    
     1   2.83350E+06    98.298        96.643    
     2   2.88256E+06    98.199        96.628    
     3   2.93652E+06    98.072        96.577    
     4   2.99588E+06    97.921        96.507    
     5   3.06118E+06    97.744        96.419    
     6   3.06842E+06    97.724        96.361    
     1   3.11306E+06    97.456        96.443    
     2   3.16216E+06    97.287        96.304    
     3   3.21618E+06    97.109        96.190    
     4   3.27560E+06    96.911        96.069    
     5   3.34096E+06    96.687        95.930    
     6   3.37589E+06    96.566        95.797    
     1   3.42054E+06    96.434        95.673    
     2   3.46965E+06    96.258        95.568    
     3   3.52368E+06    96.060        95.436    
     4   3.58311E+06    95.834        95.285    
     5   3.64848E+06    95.579        95.111    
     6   3.71410E+06    95.314        94.915    
     1   3.75878E+06    94.953        94.905    
     2   3.80793E+06    94.715        94.678    
     3   3.86199E+06    94.467        94.485    
     4   3.92146E+06    94.194        94.280    
     5   3.98688E+06    93.891        94.054    
     6   4.05883E+06    93.552        93.800    
     7   4.08614E+06    93.423        93.595    
     1   4.13081E+06    93.383        93.271    
     2   4.17995E+06    93.176        93.153    
     3   4.23401E+06    92.926        92.966    
     4   4.29347E+06    92.640        92.746    
     5   4.35887E+06    92.315        92.494    
     6   4.43082E+06    91.947        92.209    
     7   4.49538E+06    91.609        91.904    
     1   4.54008E+06    91.135        91.873    
     2   4.58926E+06    90.828        91.553    
     3   4.64335E+06    90.510        91.280    
     4   4.70285E+06    90.165        90.995    
     5   4.76830E+06    89.785        90.683    
     6   4.84029E+06    89.365        90.339    
     7   4.91949E+06    88.898        89.956    
     8   4.94554E+06    88.744        89.671    
     1   4.99023E+06    88.707        89.233    
     2   5.00000E+06    88.664        89.172    
     3   5.05407E+06    88.373        89.014    
     4   5.11355E+06    88.033        88.737    
     5   5.17898E+06    87.647        88.417    
     6   5.25095E+06    87.211        88.055    
     7   5.33011E+06    86.724        87.650    
     8   5.41719E+06    86.178        87.195    
     9   5.44073E+06    86.030        86.878    
     1   5.48542E+06    85.755        86.618    
     2   5.53459E+06    85.442        86.340    
     3   5.58867E+06    85.094        86.035    
     4   5.64816E+06    84.710        85.701    
     5   5.71360E+06    84.283        85.333    
     6   5.78558E+06    83.811        84.926    
     7   5.86476E+06    83.287        84.476    
     8   5.95186E+06    82.706        83.978    
     9   5.98543E+06    82.481        83.587    
     1   6.03012E+06    82.178        83.312    
     2   6.07929E+06    81.846        83.008    
     3   6.13338E+06    81.480        82.680    
     4   6.19287E+06    81.076        82.322    
     5   6.25832E+06    80.629        81.928    
     6   6.33031E+06    80.136        81.496    
     7   6.40950E+06    79.591        81.019    
     8   6.49660E+06    78.990        80.493    
     9   6.58459E+06    78.380        79.927    
     1   6.62930E+06    78.068        79.467    
     2   6.67847E+06    77.726        79.128    
     3   6.73256E+06    77.349        78.778    
     4   6.79206E+06    76.934        78.400    
     5   6.85751E+06    76.476        77.988    
     6   6.92950E+06    75.972        77.536    
     7   7.00870E+06    75.417        77.041    
     8   7.09581E+06    74.806        76.496    
     9   7.19163E+06    74.133        75.898    
    10   7.24368E+06    73.768        75.372    
     1   7.28838E+06    73.445        75.025    
     2   7.33756E+06    73.098        74.688    
     3   7.39165E+06    72.718        74.333    
     4   7.45114E+06    72.301        73.948    
     5   7.51659E+06    71.842        73.528    
     6   7.58859E+06    71.337        73.070    
     7   7.66778E+06    70.783        72.568    
     8   7.75489E+06    70.175        72.018    
     9   7.85072E+06    69.507        71.415    
    10   7.95612E+06    68.774        70.753    
    11   7.96868E+06    68.687        70.422    
     1   8.01338E+06    68.315        70.167    
     2   8.06256E+06    67.964        69.803    
     3   8.11666E+06    67.585        69.437    
     4   8.17617E+06    67.170        69.046    
     5   8.24163E+06    66.717        68.624    
     6   8.31363E+06    66.221        68.165    
     7   8.39283E+06    65.678        67.664    
     8   8.47996E+06    65.083        67.118    
     9   8.57579E+06    64.431        66.521    
    10   8.68121E+06    63.719        65.868    
    11   8.76617E+06    63.148        65.219    
     1   8.81086E+06    62.919        64.691    
     2   8.86003E+06    62.602        64.378    
     3   8.91411E+06    62.247        64.034    
     4   8.97359E+06    61.855        63.661    
     5   9.03903E+06    61.425        63.256    
     6   9.11101E+06    60.952        62.814    
     7   9.19019E+06    60.434        62.332    
     8   9.27728E+06    59.866        61.807    
     9   9.37309E+06    59.246        61.233    
    10   9.47847E+06    58.567        60.606    
    11   9.59440E+06    57.827        59.922    
    12   9.64342E+06    57.515        59.368    
     1   9.68811E+06    57.228        59.033    
     2   9.73727E+06    56.917        58.716    
     3   9.79135E+06    56.576        58.382    
     4   9.85084E+06    56.203        58.023    
     5   9.91628E+06    55.794        57.634    
     6   9.98826E+06    55.348        57.212    
     7   1.00000E+07    55.275        56.999    
     8   1.00871E+07    54.738        56.660    
     9   1.01829E+07    54.153        56.118    
    10   1.02883E+07    53.514        55.524    
    11   1.04042E+07    52.818        54.877    
    12   1.05317E+07    52.061        54.172    
    13   1.06084E+07    51.609        53.529    
     1   1.06531E+07    51.330        53.156    
     2   1.07023E+07    51.040        52.843    
     3   1.07564E+07    50.724        52.525    
     4   1.08159E+07    50.378        52.187    
     5   1.08814E+07    50.001        51.823    
     6   1.09534E+07    49.588        51.428    
     7   1.10326E+07    49.138        51.000    
     8   1.11197E+07    48.647        50.535    
     9   1.12156E+07    48.112        50.030    
    10   1.13210E+07    47.529        49.481    
    11   1.14370E+07    46.895        48.884    
    12   1.15645E+07    46.207        48.236    
    13   1.16698E+07    45.645        47.588    
     1   1.17146E+07    45.407        47.158    
     2   1.17637E+07    45.147        46.870    
     3   1.18178E+07    44.862        46.579    
     4   1.18774E+07    44.551        46.269    
     5   1.19428E+07    44.211        45.937    
     6   1.20148E+07    43.839        45.578    
     7   1.20940E+07    43.434        45.189    
     8   1.21812E+07    42.992        44.768    
     9   1.22770E+07    42.511        44.310    
    10   1.23824E+07    41.988        43.813    
    11   1.24984E+07    41.420        43.274    
    12   1.26260E+07    40.803        42.689    
    13   1.27663E+07    40.134        42.055    
    14   1.28375E+07    39.797        41.506    
     1   1.28822E+07    39.589        41.195    
     2   1.29314E+07    39.359        40.947    
     3   1.29855E+07    39.107        40.690    
     4   1.30450E+07    38.832        40.415    
     5   1.31104E+07    38.532        40.120    
     6   1.31824E+07    38.204        39.801    
     7   1.32617E+07    37.846        39.456    
     8   1.33488E+07    37.457        39.082    
     9   1.34446E+07    37.033        38.676    
    10   1.35501E+07    36.572        38.235    
    11   1.36660E+07    36.072        37.758    
    12   1.37936E+07    35.530        37.241    
    13   1.39339E+07    34.942        36.681    
    14   1.40883E+07    34.308        36.076    
    15   1.41218E+07    34.170        35.674    
     1   1.41665E+07    33.995        35.442    
     2   1.42157E+07    33.797        35.228    
     3   1.42698E+07    33.579        35.002    
     4   1.43293E+07    33.341        34.762    
     5   1.43948E+07    33.082        34.504    
     6   1.44667E+07    32.799        34.226    
     7   1.45459E+07    32.490        33.925    
     8   1.46331E+07    32.154        33.600    
     9   1.47289E+07    31.788        33.247    
    10   1.48343E+07    31.391        32.865    
    11   1.49502E+07    30.960        32.451    
    12   1.50778E+07    30.493        32.004    
    13   1.52181E+07    29.988        31.519    
    14   1.53724E+07    29.442        30.996    
    15   1.55346E+07    28.879        30.439    
     1   1.55793E+07    28.758        30.014    
     2   1.56285E+07    28.595        29.817    
     3   1.56826E+07    28.414        29.621    
     4   1.57421E+07    28.214        29.414    
     5   1.58075E+07    27.996        29.194    
     6   1.58795E+07    27.757        28.956    
     7   1.59587E+07    27.496        28.701    
     8   1.60458E+07    27.213        28.424    
     9   1.61417E+07    26.904        28.124    
    10   1.62471E+07    26.569        27.800    
    11   1.63630E+07    26.205        27.450    
    12   1.64905E+07    25.811        27.070    
    13   1.66308E+07    25.384        26.661    
    14   1.67851E+07    24.924        26.218    
    15   1.69549E+07    24.428        25.741    
    16   1.70887E+07    24.043        25.270    
     1   1.71335E+07    23.877        25.026    
     2   1.71827E+07    23.731        24.843    
     3   1.72368E+07    23.575        24.673    
     4   1.72963E+07    23.406        24.498    
     5   1.73618E+07    23.222        24.312    
     6   1.74338E+07    23.023        24.112    
     7   1.75130E+07    22.806        23.898    
     8   1.76002E+07    22.570        23.666    
     9   1.76960E+07    22.314        23.416    
    10   1.78015E+07    22.037        23.146    
    11   1.79175E+07    21.736        22.854    
    12   1.80451E+07    21.410        22.539    
    13   1.81854E+07    21.059        22.198    
    14   1.83398E+07    20.679        21.831    
    15   1.85096E+07    20.270        21.436    
    16   1.86964E+07    19.831        21.010    
    17   1.87982E+07    19.594        20.628    
     1   1.88430E+07    19.492        20.434    
     2   1.88922E+07    19.379        20.302    
     3   1.89463E+07    19.255        20.169    
     4   1.90058E+07    19.121        20.029    
     5   1.90713E+07    18.974        19.879    
     6   1.91433E+07    18.813        19.719    
     7   1.92225E+07    18.639        19.545    
     8   1.93097E+07    18.449        19.358    
     9   1.94055E+07    18.243        19.156    
    10   1.95110E+07    18.019        18.937    
    11   1.96270E+07    17.776        18.701    
    12   1.97545E+07    17.513        18.446    
    13   1.98949E+07    17.229        18.170    
    14   2.00000E+07    17.019        17.903    
    15   2.01698E+07    16.687        17.647    
    16   2.03566E+07    16.330        17.302    
    17   2.05621E+07    15.948        16.932    
    18   2.06787E+07    15.733        16.593    
     1   2.07234E+07    15.658        16.419    
     2   2.07726E+07    15.569        16.314    
     3   2.08266E+07    15.472        16.208    
     4   2.08861E+07    15.366        16.097    
     5   2.09516E+07    15.250        15.978    
     6   2.10236E+07    15.123        15.850    
     7   2.11028E+07    14.985        15.713    
     8   2.11899E+07    14.835        15.564    
     9   2.12857E+07    14.672        15.404    
    10   2.13911E+07    14.495        15.230    
    11   2.15070E+07    14.304        15.043    
    12   2.16345E+07    14.096        14.841    
    13   2.17748E+07    13.871        14.622    
    14   2.19291E+07    13.629        14.387    
    15   2.20989E+07    13.367        14.133    
    16   2.22856E+07    13.087        13.860    
    17   2.24910E+07    12.785        13.567    
    18   2.27169E+07    12.463        13.253    
    19   2.27472E+07    12.420        13.065    
     1   2.27919E+07    12.356        12.972    
     2   2.28411E+07    12.287        12.888    
     3   2.28951E+07    12.211        12.803    
     4   2.29546E+07    12.129        12.715    
     5   2.30201E+07    12.039        12.621    
     6   2.30921E+07    11.941        12.521    
     7   2.31713E+07    11.834        12.414    
     8   2.32584E+07    11.718        12.298    
     9   2.33542E+07    11.591        12.173    
    10   2.34596E+07    11.454        12.038    
    11   2.35755E+07    11.306        11.892    
    12   2.37030E+07    11.145        11.735    
    13   2.38433E+07    10.971        11.565    
    14   2.39976E+07    10.783        11.382    
    15   2.41674E+07    10.581        11.185    
    16   2.43541E+07    10.363        10.973    
    17   2.45595E+07    10.130        10.746    
    18   2.47854E+07    9.8799        10.502    
    19   2.50225E+07    9.6251        10.244    
     1   2.50672E+07    9.5772        10.076    
     2   2.51164E+07    9.5248        10.001    
     3   2.51705E+07    9.4675        9.9332    
     4   2.52300E+07    9.4051        9.8643    
     5   2.52954E+07    9.3369        9.7919    
     6   2.53674E+07    9.2627        9.7151    
     7   2.54466E+07    9.1819        9.6328    
     8   2.55337E+07    9.0939        9.5444    
     9   2.56295E+07    8.9983        9.4492    
    10   2.57349E+07    8.8945        9.3466    
    11   2.58509E+07    8.7820        9.2358    
    12   2.59784E+07    8.6601        9.1162    
    13   2.61187E+07    8.5282        8.9872    
    14   2.62730E+07    8.3859        8.8482    
    15   2.64428E+07    8.2325        8.6985    
    16   2.66295E+07    8.0675        8.5376    
    17   2.68349E+07    7.8903        8.3648    
    18   2.70608E+07    7.7007        8.1797    
    19   2.73094E+07    7.4981        7.9817    
    20   2.75254E+07    7.3263        7.7807    
     1   2.75701E+07    7.2980        7.6581    
     2   2.76193E+07    7.2605        7.6064    
     3   2.76734E+07    7.2189        7.5576    
     4   2.77329E+07    7.1731        7.5072    
     5   2.77983E+07    7.1230        7.4540    
     6   2.78703E+07    7.0683        7.3974    
     7   2.79495E+07    7.0087        7.3367    
     8   2.80366E+07    6.9437        7.2714    
     9   2.81324E+07    6.8729        7.2010    
    10   2.82378E+07    6.7961        7.1250    
    11   2.83537E+07    6.7126        7.0430    
    12   2.84813E+07    6.6222        6.9544    
    13   2.86216E+07    6.5244        6.8588    
    14   2.87759E+07    6.4187        6.7557    
    15   2.89456E+07    6.3047        6.6447    
    16   2.91323E+07    6.1821        6.5252    
    17   2.93377E+07    6.0503        6.3969    
    18   2.95637E+07    5.9090        6.2592    
    19   2.98122E+07    5.7581        6.1120    
    20   3.00000E+07    5.6464        5.9670    
    21   3.02786E+07    5.4860        5.8387    
     1   3.03233E+07    5.4529        5.7420    
     2   3.03725E+07    5.4236        5.6960    
     3   3.04266E+07    5.3923        5.6576    
     4   3.04861E+07    5.3583        5.6193    
     5   3.05516E+07    5.3214        5.5796    
     6   3.06236E+07    5.2813        5.5376    
     7   3.07029E+07    5.2377        5.4928    
     8   3.07900E+07    5.1903        5.4448    
     9   3.08859E+07    5.1388        5.3932    
    10   3.09913E+07    5.0830        5.3376    
    11   3.11073E+07    5.0223        5.2777    
    12   3.12349E+07    4.9567        5.2130    
    13   3.13752E+07    4.8856        5.1433    
    14   3.15296E+07    4.8089        5.0682    
    15   3.16995E+07    4.7261        4.9872    
    16   3.18863E+07    4.6369        4.9002    
    17   3.20918E+07    4.5411        4.8066    
    18   3.23178E+07    4.4384        4.7063    
    19   3.25664E+07    4.3285        4.5989    
    20   3.28399E+07    4.2113        4.4841    
    21   3.31408E+07    4.0866        4.3619    
    22   3.33071E+07    4.0188        4.2489    
     1   3.33518E+07    4.0009        4.1996    
     2   3.34010E+07    3.9811        4.1731    
     3   3.34551E+07    3.9594        4.1478    
     4   3.35146E+07    3.9357        4.1217    
     5   3.35801E+07    3.9099        4.0942    
     6   3.36521E+07    3.8817        4.0649    
     7   3.37313E+07    3.8510        4.0335    
     8   3.38185E+07    3.8175        3.9997    
     9   3.39143E+07    3.7811        3.9633    
    10   3.40198E+07    3.7415        3.9240    
    11   3.41358E+07    3.6986        3.8815    
    12   3.42634E+07    3.6520        3.8357    
    13   3.44037E+07    3.6015        3.7863    
    14   3.45581E+07    3.5470        3.7329    
    15   3.47279E+07    3.4881        3.6754    
    16   3.49147E+07    3.4246        3.6134    
    17   3.51202E+07    3.3563        3.5468    
    18   3.53462E+07    3.2831        3.4753    
    19   3.55949E+07    3.2046        3.3988    
    20   3.58684E+07    3.1208        3.3169    
    21   3.61692E+07    3.0316        3.2295    
    22   3.65002E+07    2.9369        3.1366    
    23   3.66384E+07    2.8978        3.0555    
     1   3.66831E+07    2.8864        3.0238    
     2   3.67323E+07    2.8728        3.0062    
     3   3.67864E+07    2.8578        2.9887    
     4   3.68459E+07    2.8414        2.9706    
     5   3.69113E+07    2.8235        2.9515    
     6   3.69833E+07    2.8040        2.9312    
     7   3.70625E+07    2.7827        2.9093    
     8   3.71496E+07    2.7595        2.8858    
     9   3.72454E+07    2.7342        2.8605    
    10   3.73508E+07    2.7067        2.8332    
    11   3.74667E+07    2.6769        2.8037    
    12   3.75942E+07    2.6445        2.7718    
    13   3.77345E+07    2.6093        2.7374    
    14   3.78888E+07    2.5713        2.7002    
    15   3.80586E+07    2.5302        2.6601    
    16   3.82453E+07    2.4859        2.6170    
    17   3.84507E+07    2.4382        2.5705    
    18   3.86766E+07    2.3870        2.5206    
    19   3.89251E+07    2.3321        2.4671    
    20   3.91985E+07    2.2734        2.4099    
    21   3.94992E+07    2.2108        2.3487    
    22   3.98299E+07    2.1443        2.2836    
    23   4.00000E+07    2.1106        2.2240    
    24   4.03029E+07    2.0526        2.1817    
     1   4.03476E+07    2.0438        2.1441    
     2   4.03968E+07    2.0345        2.1289    
     3   4.04509E+07    2.0242        2.1160    
     4   4.05104E+07    2.0130        2.1031    
     5   4.05758E+07    2.0008        2.0898    
     6   4.06478E+07    1.9875        2.0756    
     7   4.07270E+07    1.9730        2.0606    
     8   4.08141E+07    1.9571        2.0445    
     9   4.09099E+07    1.9399        2.0272    
    10   4.10154E+07    1.9212        2.0085    
    11   4.11313E+07    1.9008        1.9883    
    12   4.12589E+07    1.8787        1.9666    
    13   4.13992E+07    1.8548        1.9431    
    14   4.15535E+07    1.8288        1.9177    
    15   4.17232E+07    1.8008        1.8904    
    16   4.19100E+07    1.7705        1.8609    
    17   4.21154E+07    1.7379        1.8292    
    18   4.23414E+07    1.7029        1.7951    
    19   4.25899E+07    1.6652        1.7584    
    20   4.28633E+07    1.6250        1.7192    
    21   4.31641E+07    1.5820        1.6773    
    22   4.34949E+07    1.5363        1.6326    
    23   4.38588E+07    1.4877        1.5851    
    24   4.42591E+07    1.4364        1.5347    
    25   4.43338E+07    1.4268        1.4977    
     1   4.43785E+07    1.4211        1.4868    
     2   4.44277E+07    1.4148        1.4784    
     3   4.44818E+07    1.4080        1.4702    
     4   4.45413E+07    1.4006        1.4617    
     5   4.46067E+07    1.3925        1.4528    
     6   4.46787E+07    1.3836        1.4434    
     7   4.47579E+07    1.3740        1.4334    
     8   4.48450E+07    1.3634        1.4226    
     9   4.49409E+07    1.3520        1.4110    
    10   4.50463E+07    1.3395        1.3985    
    11   4.51622E+07    1.3259        1.3850    
    12   4.52898E+07    1.3111        1.3705    
    13   4.54301E+07    1.2951        1.3548    
    14   4.55844E+07    1.2778        1.3378    
    15   4.57542E+07    1.2591        1.3195    
    16   4.59409E+07    1.2388        1.2998    
    17   4.61463E+07    1.2170        1.2785    
    18   4.63723E+07    1.1934        1.2557    
    19   4.66208E+07    1.1682        1.2311    
    20   4.68943E+07    1.1411        1.2048    
    21   4.71950E+07    1.1122        1.1767    
    22   4.75258E+07    1.0814        1.1466    
    23   4.78897E+07    1.0486        1.1146    
    24   4.82900E+07    1.0139        1.0806    
    25   4.87304E+07   0.97728        1.0447    
    26   4.87678E+07   0.97418        1.0230    
     1   4.88125E+07   0.97056        1.0153    
     2   4.88617E+07   0.96652        1.0094    
     3   4.89158E+07   0.96210        1.0037    
     4   4.89753E+07   0.95726       0.99800    
     5   4.90407E+07   0.95197       0.99206    
     6   4.91127E+07   0.94620       0.98580    
     7   4.91919E+07   0.93990       0.97915    
     8   4.92790E+07   0.93302       0.97205    
     9   4.93748E+07   0.92553       0.96443    
    10   4.94802E+07   0.91737       0.95622    
    11   4.95962E+07   0.90850       0.94738    
    12   4.97237E+07   0.89885       0.93784    
    13   4.98640E+07   0.88838       0.92754    
    14   5.00000E+07   0.87836       0.91682    
    15   5.01698E+07   0.86604       0.90573    
    16   5.03565E+07   0.85273       0.89279    
    17   5.05619E+07   0.83836       0.87885    
    18   5.07878E+07   0.82289       0.86383    
    19   5.10364E+07   0.80624       0.84768    
    20   5.13098E+07   0.78839       0.83035    
    21   5.16105E+07   0.76928       0.81179    
    22   5.19413E+07   0.74888       0.79195    
    23   5.23052E+07   0.72717       0.77080    
    24   5.27055E+07   0.70414       0.74831    
    25   5.31458E+07   0.67978       0.72447    
    26   5.36301E+07   0.65411       0.69927    
    27   5.36452E+07   0.65331       0.68811    
     1   5.36899E+07   0.65089       0.68135    
     2   5.37391E+07   0.64829       0.67695    
     3   5.37932E+07   0.64546       0.67304    
     4   5.38527E+07   0.64236       0.66920    
     5   5.39181E+07   0.63898       0.66528    
     6   5.39901E+07   0.63529       0.66118    
     7   5.40693E+07   0.63126       0.65686    
     8   5.41564E+07   0.62686       0.65226    
     9   5.42522E+07   0.62206       0.64734    
    10   5.43576E+07   0.61684       0.64206    
    11   5.44736E+07   0.61115       0.63637    
    12   5.46011E+07   0.60497       0.63023    
    13   5.47414E+07   0.59825       0.62361    
    14   5.48958E+07   0.59097       0.61647    
    15   5.50655E+07   0.58307       0.60876    
    16   5.52522E+07   0.57453       0.60045    
    17   5.54576E+07   0.56530       0.59148    
    18   5.56836E+07   0.55535       0.58183    
    19   5.59321E+07   0.54464       0.57144    
    20   5.62055E+07   0.53314       0.56029    
    21   5.65063E+07   0.52081       0.54833    
    22   5.68371E+07   0.50763       0.53554    
    23   5.72010E+07   0.49359       0.52189    
    24   5.76012E+07   0.47865       0.50735    
    25   5.80415E+07   0.46284       0.49191    
    26   5.85259E+07   0.44613       0.47556    
    27   5.90104E+07   0.43010       0.45855    
     1   5.90551E+07   0.42818       0.44911    
     2   5.91042E+07   0.42648       0.44567    
     3   5.91583E+07   0.42467       0.44305    
     4   5.92179E+07   0.42271       0.44055    
     5   5.92833E+07   0.42057       0.43803    
     6   5.93553E+07   0.41825       0.43542    
     7   5.94345E+07   0.41571       0.43268    
     8   5.95216E+07   0.41295       0.42976    
     9   5.96175E+07   0.40994       0.42666    
    10   5.97229E+07   0.40666       0.42332    
    11   5.98389E+07   0.40309       0.41974    
    12   5.99664E+07   0.39921       0.41587    
    13   6.00000E+07   0.39819       0.41327    
    14   6.01543E+07   0.39357       0.41050    
    15   6.03241E+07   0.38855       0.40559    
    16   6.05109E+07   0.38313       0.40033    
    17   6.07163E+07   0.37727       0.39463    
    18   6.09423E+07   0.37094       0.38849    
    19   6.11909E+07   0.36412       0.38188    
    20   6.14643E+07   0.35678       0.37477    
    21   6.17651E+07   0.34891       0.36714    
    22   6.20960E+07   0.34049       0.35897    
    23   6.24599E+07   0.33150       0.35024    
    24   6.28602E+07   0.32193       0.34092    
    25   6.33006E+07   0.31177       0.33102    
    26   6.37850E+07   0.30103       0.32052    
    27   6.43179E+07   0.28971       0.30942    
    28   6.49040E+07   0.27782       0.29773    
    29   6.49120E+07   0.27766       0.29371    
     1   6.49567E+07   0.27711       0.28956    
     2   6.50059E+07   0.27618       0.28773    
     3   6.50600E+07   0.27512       0.28613    
     4   6.51194E+07   0.27396       0.28459    
     5   6.51849E+07   0.27268       0.28303    
     6   6.52568E+07   0.27127       0.28142    
     7   6.53360E+07   0.26973       0.27973    
     8   6.54231E+07   0.26805       0.27794    
     9   6.55189E+07   0.26621       0.27602    
    10   6.56243E+07   0.26420       0.27397    
    11   6.57402E+07   0.26201       0.27177    
    12   6.58677E+07   0.25962       0.26939    
    13   6.60080E+07   0.25702       0.26682    
    14   6.61623E+07   0.25420       0.26405    
    15   6.63320E+07   0.25114       0.26106    
    16   6.65187E+07   0.24782       0.25783    
    17   6.67240E+07   0.24422       0.25435    
    18   6.69499E+07   0.24034       0.25059    
    19   6.71984E+07   0.23615       0.24655    
    20   6.74717E+07   0.23164       0.24219    
    21   6.77724E+07   0.22679       0.23751    
    22   6.81031E+07   0.22160       0.23249    
    23   6.84669E+07   0.21604       0.22712    
    24   6.88671E+07   0.21012       0.22138    
    25   6.93073E+07   0.20382       0.21527    
    26   6.97915E+07   0.19714       0.20878    
    27   7.03242E+07   0.19009       0.20191    
    28   7.09101E+07   0.18267       0.19466    
    29   7.14039E+07   0.17665       0.18728    
     1   7.14486E+07   0.17610       0.18358    
     2   7.14977E+07   0.17550       0.18236    
     3   7.15518E+07   0.17485       0.18140    
     4   7.16113E+07   0.17414       0.18047    
     5   7.16767E+07   0.17336       0.17954    
     6   7.17487E+07   0.17250       0.17858    
     7   7.18279E+07   0.17157       0.17756    
     8   7.19150E+07   0.17055       0.17649    
     9   7.20108E+07   0.16944       0.17533    
    10   7.21161E+07   0.16822       0.17410    
    11   7.22321E+07   0.16690       0.17277    
    12   7.23596E+07   0.16546       0.17134    
    13   7.24998E+07   0.16389       0.16979    
    14   7.26541E+07   0.16218       0.16812    
    15   7.28238E+07   0.16033       0.16632    
    16   7.30105E+07   0.15832       0.16437    
    17   7.32159E+07   0.15614       0.16226    
    18   7.34418E+07   0.15378       0.15999    
    19   7.36903E+07   0.15124       0.15754    
    20   7.39636E+07   0.14850       0.15490    
    21   7.42643E+07   0.14555       0.15206    
    22   7.45950E+07   0.14239       0.14901    
    23   7.49588E+07   0.13900       0.14574    
    24   7.53590E+07   0.13538       0.14225    
    25   7.57992E+07   0.13152       0.13852    
    26   7.62835E+07   0.12742       0.13455    
    27   7.68161E+07   0.12309       0.13034    
    28   7.74021E+07   0.11852       0.12589    
    29   7.80466E+07   0.11372       0.12119    
    30   7.85449E+07   0.11014       0.11648    
     1   7.85896E+07   0.10979       0.11431    
     2   7.86388E+07   0.10943       0.11357    
     3   7.86929E+07   0.10905       0.11300    
     4   7.87524E+07   0.10863       0.11245    
     5   7.88178E+07   0.10816       0.11189    
     6   7.88899E+07   0.10766       0.11132    
     7   7.89691E+07   0.10711       0.11072    
     8   7.90562E+07   0.10651       0.11008    
     9   7.91520E+07   0.10585       0.10940    
    10   7.92575E+07   0.10513       0.10867    
    11   7.93735E+07   0.10435       0.10788    
    12   7.95010E+07   0.10349       0.10703    
    13   7.96414E+07   0.10257       0.10611    
    14   7.97957E+07   0.10155       0.10513    
    15   7.99655E+07   0.10046       0.10406    
    16   8.01523E+07   9.92633E-02   0.10290    
    17   8.03577E+07   9.79705E-02   0.10165    
    18   8.05837E+07   9.65709E-02   0.10030    
    19   8.08323E+07   9.50587E-02   9.88452E-02
    20   8.11058E+07   9.34265E-02   9.72760E-02
    21   8.14066E+07   9.16686E-02   9.55861E-02
    22   8.17375E+07   8.97791E-02   9.37696E-02
    23   8.21015E+07   8.77527E-02   9.18202E-02
    24   8.25019E+07   8.55847E-02   8.97323E-02
    25   8.29423E+07   8.32717E-02   8.75013E-02
    26   8.34267E+07   8.08108E-02   8.51234E-02
    27   8.39596E+07   7.82008E-02   8.25955E-02
    28   8.45458E+07   7.54421E-02   7.99165E-02
    29   8.51906E+07   7.25372E-02   7.70867E-02
    30   8.58999E+07   6.94915E-02   7.41085E-02
    31   8.64000E+07   6.74191E-02   7.11458E-02
